Subject,Channel_Index,Channel,Raw_Class_R2,Clean_Class_R2,Class_R2_Change,Delta_Accuracy,Delta_F1
A01,0,Fz,0.03374364311891346,0.011898574778405264,-0.021845068340508193,-0.02491103202846978,-0.027914278507571
A01,1,FC3,0.028258109660783244,0.019021277664793907,-0.009236831995989337,-0.02491103202846978,-0.027914278507571
A01,2,FC1,0.026541258406531144,0.014833235733161365,-0.011708022673369779,-0.02491103202846978,-0.027914278507571
A01,3,FCz,0.02401912053407256,0.011685869917184491,-0.012333250616888067,-0.02491103202846978,-0.027914278507571
A01,4,FC2,0.02000397014410114,0.01126311947472632,-0.00874085066937482,-0.02491103202846978,-0.027914278507571
A01,5,FC4,0.010832757058446437,0.0022755640803839346,-0.008557192978062502,-0.02491103202846978,-0.027914278507571
A01,6,C5,0.005652411421230358,0.01700751655035755,0.011355105129127192,-0.02491103202846978,-0.027914278507571
A01,7,C3,0.01637266506200749,0.030225567663945168,0.013852902601937677,-0.02491103202846978,-0.027914278507571
A01,8,C1,0.014128265507617727,0.012209631226373596,-0.001918634281244131,-0.02491103202846978,-0.027914278507571
A01,9,Cz,0.016687712464946543,0.012143239478758802,-0.004544472986187742,-0.02491103202846978,-0.027914278507571
A01,10,C2,0.012558666917225769,0.01014405056539216,-0.0024146163518336088,-0.02491103202846978,-0.027914278507571
A01,11,C4,0.010728481619020003,0.014145965517004972,0.0034174838979849683,-0.02491103202846978,-0.027914278507571
A01,12,C6,0.002786510794282987,0.0015920701147422534,-0.0011944406795407335,-0.02491103202846978,-0.027914278507571
A01,13,CP3,0.03777252166012234,0.07395200036308948,0.03617947870296714,-0.02491103202846978,-0.027914278507571
A01,14,CP1,0.01136042523695277,0.018367908513710018,0.0070074832767572474,-0.02491103202846978,-0.027914278507571
A01,15,CPz,0.01053774134800273,0.008460391239450702,-0.002077350108552029,-0.02491103202846978,-0.027914278507571
A01,16,CP2,0.009081127845977957,0.007408138951894146,-0.0016729888940838116,-0.02491103202846978,-0.027914278507571
A01,17,CP4,0.018761305078744715,0.029400406792319995,0.01063910171357528,-0.02491103202846978,-0.027914278507571
A01,18,P1,0.022414842157236513,0.04289974191178311,0.0204848997545466,-0.02491103202846978,-0.027914278507571
A01,19,Pz,0.011383096365368895,0.017992801054916074,0.006609704689547179,-0.02491103202846978,-0.027914278507571
A01,20,P2,0.011747605449892345,0.017653083910322793,0.005905478460430448,-0.02491103202846978,-0.027914278507571
A01,21,POz,0.019655579934375663,0.030996365822784956,0.011340785888409293,-0.02491103202846978,-0.027914278507571
A02,0,Fz,0.01384258934316476,0.009685045046509601,-0.004157544296655158,-0.03886925795052998,-0.02708237236913913
A02,1,FC3,0.014534746522367333,0.01507946595687656,0.000544719434509228,-0.03886925795052998,-0.02708237236913913
A02,2,FC1,0.014122398846097907,0.012704330218402492,-0.0014180686276954145,-0.03886925795052998,-0.02708237236913913
A02,3,FCz,0.014373234561875423,0.01206292615519786,-0.0023103084066775637,-0.03886925795052998,-0.02708237236913913
A02,4,FC2,0.014502723332908812,0.013573972807815882,-0.00092875052509293,-0.03886925795052998,-0.02708237236913913
A02,5,FC4,0.015027234378696542,0.01620151162798127,0.0011742772492847279,-0.03886925795052998,-0.02708237236913913
A02,6,C5,0.013587248413126548,0.013274376944411113,-0.00031287146871543554,-0.03886925795052998,-0.02708237236913913
A02,7,C3,0.014580036832363774,0.015411851061183986,0.0008318142288202112,-0.03886925795052998,-0.02708237236913913
A02,8,C1,0.014469398627366197,0.015018841896423739,0.000549443269057542,-0.03886925795052998,-0.02708237236913913
A02,9,Cz,0.014993552714388222,0.016491183216489274,0.0014976305021010515,-0.03886925795052998,-0.02708237236913913
A02,10,C2,0.014634210016348808,0.015168473370522963,0.0005342633541741554,-0.03886925795052998,-0.02708237236913913
A02,11,C4,0.01510569048768696,0.016644255042849554,0.001538564555162594,-0.03886925795052998,-0.02708237236913913
A02,12,C6,0.013330236117197084,0.010812066166546988,-0.0025181699506500958,-0.03886925795052998,-0.02708237236913913
A02,13,CP3,0.014475458976655158,0.015170723144791053,0.0006952641681358951,-0.03886925795052998,-0.02708237236913913
A02,14,CP1,0.014278793662437023,0.014831877066927025,0.0005530834044900016,-0.03886925795052998,-0.02708237236913913
A02,15,CPz,0.014692358241095504,0.015666118773552413,0.000973760532456909,-0.03886925795052998,-0.02708237236913913
A02,16,CP2,0.014412605627046328,0.014574013234724167,0.00016140760767783917,-0.03886925795052998,-0.02708237236913913
A02,17,CP4,0.014249187611368884,0.01386127406714537,-0.0003879135442235136,-0.03886925795052998,-0.02708237236913913
A02,18,P1,0.014110874235798515,0.014591158895992792,0.00048028466019427694,-0.03886925795052998,-0.02708237236913913
A02,19,Pz,0.01407349881155856,0.014216490731708062,0.00014299192014950203,-0.03886925795052998,-0.02708237236913913
A02,20,P2,0.013893531026329087,0.013445848724035812,-0.0004476823022932751,-0.03886925795052998,-0.02708237236913913
A02,21,POz,0.013671130078909998,0.013517456300787881,-0.0001536737781221171,-0.03886925795052998,-0.02708237236913913
A03,0,Fz,0.011491631416622997,0.0705010737720715,0.059009442355448506,-0.00366300366300365,-0.001569319265132707
A03,1,FC3,0.01619104718533381,0.06791505362262965,0.051724006437295834,-0.00366300366300365,-0.001569319265132707
A03,2,FC1,0.018791520491727932,0.0917655352652295,0.07297401477350157,-0.00366300366300365,-0.001569319265132707
A03,3,FCz,0.019015354020881964,0.07441557490394525,0.05540022088306329,-0.00366300366300365,-0.001569319265132707
A03,4,FC2,0.022104693612445662,0.08986203205558414,0.06775733844313848,-0.00366300366300365,-0.001569319265132707
A03,5,FC4,0.015916658055880436,0.051157241426869386,0.035240583370988954,-0.00366300366300365,-0.001569319265132707
A03,6,C5,0.008044794303428407,0.05663759905425943,0.04859280475083102,-0.00366300366300365,-0.001569319265132707
A03,7,C3,0.04657846269280288,0.128902753008634,0.0823242903158311,-0.00366300366300365,-0.001569319265132707
A03,8,C1,0.03316186994982387,0.13108776583424422,0.09792589588442036,-0.00366300366300365,-0.001569319265132707
A03,9,Cz,0.02835913018624329,0.11949121863584361,0.09113208844960032,-0.00366300366300365,-0.001569319265132707
A03,10,C2,0.039544603040906366,0.14940478186937733,0.10986017882847096,-0.00366300366300365,-0.001569319265132707
A03,11,C4,0.048949767679870346,0.13135459021718046,0.08240482253731012,-0.00366300366300365,-0.001569319265132707
A03,12,C6,0.024747376672358004,0.038285087284506275,0.013537710612148271,-0.00366300366300365,-0.001569319265132707
A03,13,CP3,0.06287139049402166,0.15324419397686603,0.09037280348284438,-0.00366300366300365,-0.001569319265132707
A03,14,CP1,0.061990702614947636,0.1578484312256959,0.09585772861074826,-0.00366300366300365,-0.001569319265132707
A03,15,CPz,0.06351792970369023,0.15862815624416535,0.09511022654047512,-0.00366300366300365,-0.001569319265132707
A03,16,CP2,0.08034638886596089,0.19395342340741958,0.11360703454145869,-0.00366300366300365,-0.001569319265132707
A03,17,CP4,0.08829571984595007,0.20314478252274173,0.11484906267679167,-0.00366300366300365,-0.001569319265132707
A03,18,P1,0.07139145835963744,0.16336062928204276,0.09196917092240532,-0.00366300366300365,-0.001569319265132707
A03,19,Pz,0.07934373911276496,0.1677727144352495,0.08842897532248453,-0.00366300366300365,-0.001569319265132707
A03,20,P2,0.09382016339086051,0.18081101805835,0.0869908546674895,-0.00366300366300365,-0.001569319265132707
A03,21,POz,0.06430589854162726,0.1286946988504127,0.06438880030878545,-0.00366300366300365,-0.001569319265132707
A04,0,Fz,0.026956996525639685,0.0177339134054222,-0.009223083120217485,-0.02631578947368418,-0.027482121801537418
A04,1,FC3,0.011071498150982096,0.005601029157330553,-0.005470468993651543,-0.02631578947368418,-0.027482121801537418
A04,2,FC1,0.02044947435240489,0.021410995935651045,0.0009615215832461561,-0.02631578947368418,-0.027482121801537418
A04,3,FCz,0.017350217404173987,0.01884371241339782,0.0014934950092238344,-0.02631578947368418,-0.027482121801537418
A04,4,FC2,0.018360874623485405,0.019607324582409224,0.001246449958923819,-0.02631578947368418,-0.027482121801537418
A04,5,FC4,0.01570830821977749,0.016112623886069113,0.0004043156662916249,-0.02631578947368418,-0.027482121801537418
A04,6,C5,0.0019914542762184883,0.0012038608648784212,-0.0007875934113400671,-0.02631578947368418,-0.027482121801537418
A04,7,C3,0.01776521843587429,0.022735348113447382,0.004970129677573092,-0.02631578947368418,-0.027482121801537418
A04,8,C1,0.035931315330943174,0.04756042968387557,0.011629114352932395,-0.02631578947368418,-0.027482121801537418
A04,9,Cz,0.032113975191213784,0.04190376592257498,0.009789790731361193,-0.02631578947368418,-0.027482121801537418
A04,10,C2,0.03063497680307202,0.04096361363351115,0.01032863683043913,-0.02631578947368418,-0.027482121801537418
A04,11,C4,0.025324501827861865,0.037648011698741025,0.01232350987087916,-0.02631578947368418,-0.027482121801537418
A04,12,C6,0.0149074284220544,0.018571725086861286,0.003664296664806886,-0.02631578947368418,-0.027482121801537418
A04,13,CP3,0.060943157867846126,0.07829526359177255,0.017352105723926425,-0.02631578947368418,-0.027482121801537418
A04,14,CP1,0.08095615223130916,0.09692984368321603,0.01597369145190687,-0.02631578947368418,-0.027482121801537418
A04,15,CPz,0.06961189932473137,0.08305151057673954,0.013439611252008168,-0.02631578947368418,-0.027482121801537418
A04,16,CP2,0.06495524079160173,0.08005268525209755,0.015097444460495824,-0.02631578947368418,-0.027482121801537418
A04,17,CP4,0.055024609004477455,0.07105338688229926,0.016028777877821802,-0.02631578947368418,-0.027482121801537418
A04,18,P1,0.1194890298707727,0.1273159625197684,0.0078269326489957,-0.02631578947368418,-0.027482121801537418
A04,19,Pz,0.09605343067679284,0.10173443134122885,0.005681000664436012,-0.02631578947368418,-0.027482121801537418
A04,20,P2,0.08965677443994227,0.09249416997990502,0.0028373955399627476,-0.02631578947368418,-0.027482121801537418
A04,21,POz,0.12312852124093868,0.12188332338967145,-0.0012451978512672268,-0.02631578947368418,-0.027482121801537418
A05,0,Fz,0.011275621779714178,0.0049836874527046165,-0.006291934327009562,0.021739130434782594,0.06250575637185948
A05,1,FC3,0.023284973911551453,0.01924163584930128,-0.004043338062250174,0.021739130434782594,0.06250575637185948
A05,2,FC1,0.016744753130529227,0.010489638901037523,-0.006255114229491704,0.021739130434782594,0.06250575637185948
A05,3,FCz,0.017543487347543553,0.01300794474923916,-0.004535542598304392,0.021739130434782594,0.06250575637185948
A05,4,FC2,0.013176145491519941,0.00806211530651867,-0.0051140301850012716,0.021739130434782594,0.06250575637185948
A05,5,FC4,0.021245163383083125,0.014419662113309686,-0.006825501269773439,0.021739130434782594,0.06250575637185948
A05,6,C5,0.010174514901221577,0.005729922521140569,-0.004444592380081008,0.021739130434782594,0.06250575637185948
A05,7,C3,0.02198247619358785,0.015683473136193025,-0.006299003057394826,0.021739130434782594,0.06250575637185948
A05,8,C1,0.01618770326679103,0.009617458916757431,-0.0065702443500336005,0.021739130434782594,0.06250575637185948
A05,9,Cz,0.018468761312250618,0.014620324429374535,-0.0038484368828760832,0.021739130434782594,0.06250575637185948
A05,10,C2,0.01351500486377072,0.009045163739063968,-0.004469841124706752,0.021739130434782594,0.06250575637185948
A05,11,C4,0.018795386297285506,0.016477406213081712,-0.002317980084203794,0.021739130434782594,0.06250575637185948
A05,12,C6,0.012032089872120004,0.009880688350376386,-0.0021514015217436178,0.021739130434782594,0.06250575637185948
A05,13,CP3,0.01760521716727073,0.017371497026443708,-0.00023372014082702341,0.021739130434782594,0.06250575637185948
A05,14,CP1,0.015420502849173286,0.01099293302631282,-0.0044275698228604665,0.021739130434782594,0.06250575637185948
A05,15,CPz,0.01721307560233416,0.015272111767136418,-0.0019409638351977412,0.021739130434782594,0.06250575637185948
A05,16,CP2,0.016449706868124386,0.011166972568373939,-0.005282734299750447,0.021739130434782594,0.06250575637185948
A05,17,CP4,0.02066221705257876,0.014092273245997638,-0.006569943806581123,0.021739130434782594,0.06250575637185948
A05,18,P1,0.01930984664487327,0.01581876313588187,-0.0034910835089914,0.021739130434782594,0.06250575637185948
A05,19,Pz,0.01602106370754977,0.011826431520063931,-0.00419463218748584,0.021739130434782594,0.06250575637185948
A05,20,P2,0.016172846431463373,0.013379959671127423,-0.00279288676033595,0.021739130434782594,0.06250575637185948
A05,21,POz,0.013900064767501918,0.01438282788391764,0.00048276311641572145,0.021739130434782594,0.06250575637185948
A06,0,Fz,0.026131081043054963,0.02517801833860232,-0.0009530627044526431,0.0,0.002460527644751187
A06,1,FC3,0.027567302337187672,0.025864383964218408,-0.0017029183729692643,0.0,0.002460527644751187
A06,2,FC1,0.025663178436230664,0.025437416015286318,-0.00022576242094434623,0.0,0.002460527644751187
A06,3,FCz,0.024560783367836354,0.020349771057352094,-0.00421101231048426,0.0,0.002460527644751187
A06,4,FC2,0.027204289116680668,0.027123131682709457,-8.11574339712115e-05,0.0,0.002460527644751187
A06,5,FC4,0.03343338624678698,0.030646991391786883,-0.0027863948550000996,0.0,0.002460527644751187
A06,6,C5,0.0372150667241428,0.03726584587572631,5.077915158351043e-05,0.0,0.002460527644751187
A06,7,C3,0.023665277126037183,0.023996780050094466,0.00033150292405728296,0.0,0.002460527644751187
A06,8,C1,0.033767424046964846,0.030140689521764286,-0.0036267345252005596,0.0,0.002460527644751187
A06,9,Cz,0.031675213160122936,0.022078019752756202,-0.009597193407366734,0.0,0.002460527644751187
A06,10,C2,0.03525998899874937,0.03542885130059658,0.00016886230184721268,0.0,0.002460527644751187
A06,11,C4,0.04553605966322186,0.04937033418833757,0.0038342745251157065,0.0,0.002460527644751187
A06,12,C6,0.06103752957983819,0.056560904904607155,-0.004476624675231036,0.0,0.002460527644751187
A06,13,CP3,0.03649301400022372,0.03546703900814909,-0.0010259749920746297,0.0,0.002460527644751187
A06,14,CP1,0.04674740965796266,0.043237215990712355,-0.0035101936672503053,0.0,0.002460527644751187
A06,15,CPz,0.043235087753488714,0.03440909922598379,-0.008825988527504922,0.0,0.002460527644751187
A06,16,CP2,0.051389368366415666,0.047677928461985875,-0.003711439904429792,0.0,0.002460527644751187
A06,17,CP4,0.06037848434985161,0.058436013000776006,-0.001942471349075603,0.0,0.002460527644751187
A06,18,P1,0.04502045835960512,0.0411595705275562,-0.003860887832048923,0.0,0.002460527644751187
A06,19,Pz,0.03589935514039447,0.03225031542255151,-0.0036490397178429584,0.0,0.002460527644751187
A06,20,P2,0.04384817278346597,0.03910620781759549,-0.004741964965870482,0.0,0.002460527644751187
A06,21,POz,0.019624193936522035,0.017296126628433738,-0.0023280673080882976,0.0,0.002460527644751187
A07,0,Fz,0.0568102804633181,0.03858620896994215,-0.018224071493375946,0.06137184115523464,0.06590353977961971
A07,1,FC3,0.033590812948102365,0.027702448422946353,-0.0058883645251560125,0.06137184115523464,0.06590353977961971
A07,2,FC1,0.03957178082993544,0.035363083323798984,-0.0042086975061364565,0.06137184115523464,0.06590353977961971
A07,3,FCz,0.038583495730190404,0.031584938283950925,-0.006998557446239478,0.06137184115523464,0.06590353977961971
A07,4,FC2,0.041622842138411185,0.03759591917126484,-0.004026922967146344,0.06137184115523464,0.06590353977961971
A07,5,FC4,0.03856412543807645,0.040722537533088646,0.002158412095012198,0.06137184115523464,0.06590353977961971
A07,6,C5,0.03368968458848167,0.043382427113249904,0.009692742524768233,0.06137184115523464,0.06590353977961971
A07,7,C3,0.060460355207686764,0.07128099324995707,0.010820638042270306,0.06137184115523464,0.06590353977961971
A07,8,C1,0.043791930403733664,0.04886920852580834,0.005077278122074674,0.06137184115523464,0.06590353977961971
A07,9,Cz,0.029123657022965533,0.03137700841147994,0.0022533513885144053,0.06137184115523464,0.06590353977961971
A07,10,C2,0.03973819322861998,0.04393555066152247,0.00419735743290249,0.06137184115523464,0.06590353977961971
A07,11,C4,0.04722422631181877,0.060353543116024484,0.013129316804205711,0.06137184115523464,0.06590353977961971
A07,12,C6,0.01876850746186888,0.020665016325074427,0.0018965088632055468,0.06137184115523464,0.06590353977961971
A07,13,CP3,0.06279423317229964,0.07289014191550308,0.010095908743203444,0.06137184115523464,0.06590353977961971
A07,14,CP1,0.06309927757861244,0.07235920233709865,0.009259924758486207,0.06137184115523464,0.06590353977961971
A07,15,CPz,0.0624590735571185,0.07235010657923045,0.009891033022111952,0.06137184115523464,0.06590353977961971
A07,16,CP2,0.04950214122435195,0.05858723718418638,0.009085095959834429,0.06137184115523464,0.06590353977961971
A07,17,CP4,0.036284426348986175,0.04456561710508172,0.008281190756095548,0.06137184115523464,0.06590353977961971
A07,18,P1,0.06238054267997627,0.06625845570551332,0.0038779130255370553,0.06137184115523464,0.06590353977961971
A07,19,Pz,0.059703229152231085,0.06506013843504073,0.005356909282809644,0.06137184115523464,0.06590353977961971
A07,20,P2,0.04079193767406351,0.044575518168020356,0.0037835804939568493,0.06137184115523464,0.06590353977961971
A07,21,POz,0.020128953639251504,0.020577566786905147,0.00044861314765364327,0.06137184115523464,0.06590353977961971
A08,0,Fz,0.01676931294636082,0.010752323657676519,-0.0060169892886843025,0.0,-0.0021923887083538096
A08,1,FC3,0.01840154175608052,0.020080692623006057,0.0016791508669255356,0.0,-0.0021923887083538096
A08,2,FC1,0.01889688096646994,0.018019867255797437,-0.0008770137106725029,0.0,-0.0021923887083538096
A08,3,FCz,0.019450394612987976,0.016420003940613714,-0.0030303906723742613,0.0,-0.0021923887083538096
A08,4,FC2,0.01886501727809081,0.019139589887673572,0.00027457260958276344,0.0,-0.0021923887083538096
A08,5,FC4,0.017508640347243913,0.021281237077558354,0.0037725967303144405,0.0,-0.0021923887083538096
A08,6,C5,0.009560476291023209,0.02089615378193149,0.01133567749090828,0.0,-0.0021923887083538096
A08,7,C3,0.017690459100007005,0.03610366116247514,0.018413202062468135,0.0,-0.0021923887083538096
A08,8,C1,0.02559722743502402,0.04436353613559656,0.018766308700572536,0.0,-0.0021923887083538096
A08,9,Cz,0.03828836611169723,0.0584113093066066,0.02012294319490937,0.0,-0.0021923887083538096
A08,10,C2,0.04478287094082262,0.08423125497800957,0.03944838403718695,0.0,-0.0021923887083538096
A08,11,C4,0.05498802593806721,0.13233975447273397,0.07735172853466676,0.0,-0.0021923887083538096
A08,12,C6,0.034839880350665375,0.11506910861537023,0.08022922826470485,0.0,-0.0021923887083538096
A08,13,CP3,0.04755005252295016,0.08739758131621397,0.039847528793263816,0.0,-0.0021923887083538096
A08,14,CP1,0.0600342019928707,0.08866645826760072,0.028632256274730025,0.0,-0.0021923887083538096
A08,15,CPz,0.08056735396219067,0.10466746330449363,0.02410010934230296,0.0,-0.0021923887083538096
A08,16,CP2,0.09169083649558242,0.13240338319637004,0.040712546700787625,0.0,-0.0021923887083538096
A08,17,CP4,0.10841765080824711,0.16443245651384514,0.056014805705598025,0.0,-0.0021923887083538096
A08,18,P1,0.07458337077312262,0.09611787976689926,0.021534508993776638,0.0,-0.0021923887083538096
A08,19,Pz,0.0900760092288567,0.10985483768566004,0.019778828456803343,0.0,-0.0021923887083538096
A08,20,P2,0.0929445945648901,0.12115815089891686,0.028213556334026765,0.0,-0.0021923887083538096
A08,21,POz,0.06498246321900855,0.08498626401704333,0.02000380079803478,0.0,-0.0021923887083538096
A09,0,Fz,0.043773788386795756,0.026298491609232484,-0.017475296777563272,-0.018939393939393923,-0.015270997623866744
A09,1,FC3,0.10282379481640476,0.10614164759318714,0.0033178527767823845,-0.018939393939393923,-0.015270997623866744
A09,2,FC1,0.07740757114036041,0.07514748176416056,-0.002260089376199856,-0.018939393939393923,-0.015270997623866744
A09,3,FCz,0.05600816683805851,0.048942050006532366,-0.007066116831526144,-0.018939393939393923,-0.015270997623866744
A09,4,FC2,0.05337409821868594,0.04873202014312594,-0.004642078075559997,-0.018939393939393923,-0.015270997623866744
A09,5,FC4,0.0590159645035265,0.05929310338469684,0.0002771388811703343,-0.018939393939393923,-0.015270997623866744
A09,6,C5,0.16472845648012688,0.16580315114688643,0.0010746946667595514,-0.018939393939393923,-0.015270997623866744
A09,7,C3,0.2418024440718044,0.2516223952848111,0.009819951213006717,-0.018939393939393923,-0.015270997623866744
A09,8,C1,0.17207442595596142,0.18846153834332133,0.016387112387359903,-0.018939393939393923,-0.015270997623866744
A09,9,Cz,0.11714560386574532,0.11952031166896067,0.002374707803215345,-0.018939393939393923,-0.015270997623866744
A09,10,C2,0.12434195957564935,0.12793214638531955,0.003590186809670201,-0.018939393939393923,-0.015270997623866744
A09,11,C4,0.23269484081672093,0.2575387656933643,0.024843924876643386,-0.018939393939393923,-0.015270997623866744
A09,12,C6,0.18831539696309463,0.21866202295352155,0.030346625990426923,-0.018939393939393923,-0.015270997623866744
A09,13,CP3,0.27181150508278784,0.273266723171288,0.001455218088500132,-0.018939393939393923,-0.015270997623866744
A09,14,CP1,0.2262008306942256,0.23274744342348994,0.006546612729264323,-0.018939393939393923,-0.015270997623866744
A09,15,CPz,0.18826173706520405,0.187209150522445,-0.0010525865427590542,-0.018939393939393923,-0.015270997623866744
A09,16,CP2,0.17518136234355752,0.16977621239217933,-0.005405149951378196,-0.018939393939393923,-0.015270997623866744
A09,17,CP4,0.23649472164990384,0.24368075263554992,0.007186030985646075,-0.018939393939393923,-0.015270997623866744
A09,18,P1,0.18744348349133613,0.19255294162395567,0.005109458132619538,-0.018939393939393923,-0.015270997623866744
A09,19,Pz,0.16317748090446793,0.16005415015054178,-0.0031233307539261512,-0.018939393939393923,-0.015270997623866744
A09,20,P2,0.1464136143022229,0.13951533374455147,-0.0068982805576714434,-0.018939393939393923,-0.015270997623866744
A09,21,POz,0.11000756449333558,0.1130201392240381,0.0030125747307025164,-0.018939393939393923,-0.015270997623866744
