Subject,Channel_Index,Channel,Raw_Class_R2,Clean_Class_R2,Class_R2_Change,Delta_Accuracy,Delta_F1
A01,0,Fz,0.0337436431189134,0.0118985747784052,-0.0218450683405081,-0.0249110320284697,-0.027914278507571
A01,1,FC3,0.0282581096607832,0.0190212776647939,-0.0092368319959893,-0.0249110320284697,-0.027914278507571
A01,2,FC1,0.0265412584065311,0.0148332357331613,-0.0117080226733697,-0.0249110320284697,-0.027914278507571
A01,3,FCz,0.0240191205340725,0.0116858699171844,-0.012333250616888,-0.0249110320284697,-0.027914278507571
A01,4,FC2,0.0200039701441011,0.0112631194747263,-0.0087408506693748,-0.0249110320284697,-0.027914278507571
A01,5,FC4,0.0108327570584464,0.0022755640803839,-0.0085571929780625,-0.0249110320284697,-0.027914278507571
A01,6,C5,0.0056524114212303,0.0170075165503575,0.0113551051291271,-0.0249110320284697,-0.027914278507571
A01,7,C3,0.0163726650620074,0.0302255676639451,0.0138529026019376,-0.0249110320284697,-0.027914278507571
A01,8,C1,0.0141282655076177,0.0122096312263735,-0.0019186342812441,-0.0249110320284697,-0.027914278507571
A01,9,Cz,0.0166877124649465,0.0121432394787588,-0.0045444729861877,-0.0249110320284697,-0.027914278507571
A01,10,C2,0.0125586669172257,0.0101440505653921,-0.0024146163518336,-0.0249110320284697,-0.027914278507571
A01,11,C4,0.01072848161902,0.0141459655170049,0.0034174838979849,-0.0249110320284697,-0.027914278507571
A01,12,C6,0.0027865107942829,0.0015920701147422,-0.0011944406795407,-0.0249110320284697,-0.027914278507571
A01,13,CP3,0.0377725216601223,0.0739520003630894,0.0361794787029671,-0.0249110320284697,-0.027914278507571
A01,14,CP1,0.0113604252369527,0.01836790851371,0.0070074832767572,-0.0249110320284697,-0.027914278507571
A01,15,CPz,0.0105377413480027,0.0084603912394507,-0.002077350108552,-0.0249110320284697,-0.027914278507571
A01,16,CP2,0.0090811278459779,0.0074081389518941,-0.0016729888940838,-0.0249110320284697,-0.027914278507571
A01,17,CP4,0.0187613050787447,0.0294004067923199,0.0106391017135752,-0.0249110320284697,-0.027914278507571
A01,18,P1,0.0224148421572365,0.0428997419117831,0.0204848997545466,-0.0249110320284697,-0.027914278507571
A01,19,Pz,0.0113830963653688,0.017992801054916,0.0066097046895471,-0.0249110320284697,-0.027914278507571
A01,20,P2,0.0117476054498923,0.0176530839103227,0.0059054784604304,-0.0249110320284697,-0.027914278507571
A01,21,POz,0.0196555799343756,0.0309963658227849,0.0113407858884092,-0.0249110320284697,-0.027914278507571
A02,0,Fz,0.0138425893431647,0.0096850450465096,-0.0041575442966551,-0.0388692579505299,-0.0270823723691391
A02,1,FC3,0.0145347465223673,0.0150794659568765,0.0005447194345092,-0.0388692579505299,-0.0270823723691391
A02,2,FC1,0.0141223988460979,0.0127043302184024,-0.0014180686276954,-0.0388692579505299,-0.0270823723691391
A02,3,FCz,0.0143732345618754,0.0120629261551978,-0.0023103084066775,-0.0388692579505299,-0.0270823723691391
A02,4,FC2,0.0145027233329088,0.0135739728078158,-0.0009287505250929,-0.0388692579505299,-0.0270823723691391
A02,5,FC4,0.0150272343786965,0.0162015116279812,0.0011742772492847,-0.0388692579505299,-0.0270823723691391
A02,6,C5,0.0135872484131265,0.0132743769444111,-0.0003128714687154,-0.0388692579505299,-0.0270823723691391
A02,7,C3,0.0145800368323637,0.0154118510611839,0.0008318142288202,-0.0388692579505299,-0.0270823723691391
A02,8,C1,0.0144693986273661,0.0150188418964237,0.0005494432690575,-0.0388692579505299,-0.0270823723691391
A02,9,Cz,0.0149935527143882,0.0164911832164892,0.001497630502101,-0.0388692579505299,-0.0270823723691391
A02,10,C2,0.0146342100163488,0.0151684733705229,0.0005342633541741,-0.0388692579505299,-0.0270823723691391
A02,11,C4,0.0151056904876869,0.0166442550428495,0.0015385645551625,-0.0388692579505299,-0.0270823723691391
A02,12,C6,0.013330236117197,0.0108120661665469,-0.00251816995065,-0.0388692579505299,-0.0270823723691391
A02,13,CP3,0.0144754589766551,0.015170723144791,0.0006952641681358,-0.0388692579505299,-0.0270823723691391
A02,14,CP1,0.014278793662437,0.014831877066927,0.00055308340449,-0.0388692579505299,-0.0270823723691391
A02,15,CPz,0.0146923582410955,0.0156661187735524,0.0009737605324569,-0.0388692579505299,-0.0270823723691391
A02,16,CP2,0.0144126056270463,0.0145740132347241,0.0001614076076778,-0.0388692579505299,-0.0270823723691391
A02,17,CP4,0.0142491876113688,0.0138612740671453,-0.0003879135442235,-0.0388692579505299,-0.0270823723691391
A02,18,P1,0.0141108742357985,0.0145911588959927,0.0004802846601942,-0.0388692579505299,-0.0270823723691391
A02,19,Pz,0.0140734988115585,0.014216490731708,0.0001429919201495,-0.0388692579505299,-0.0270823723691391
A02,20,P2,0.013893531026329,0.0134458487240358,-0.0004476823022932,-0.0388692579505299,-0.0270823723691391
A02,21,POz,0.0136711300789099,0.0135174563007878,-0.0001536737781221,-0.0388692579505299,-0.0270823723691391
A03,0,Fz,0.0114916314166229,0.0705010737720715,0.0590094423554485,-0.0036630036630036,-0.0015693192651327
A03,1,FC3,0.0161910471853338,0.0679150536226296,0.0517240064372958,-0.0036630036630036,-0.0015693192651327
A03,2,FC1,0.0187915204917279,0.0917655352652295,0.0729740147735015,-0.0036630036630036,-0.0015693192651327
A03,3,FCz,0.0190153540208819,0.0744155749039452,0.0554002208830632,-0.0036630036630036,-0.0015693192651327
A03,4,FC2,0.0221046936124456,0.0898620320555841,0.0677573384431384,-0.0036630036630036,-0.0015693192651327
A03,5,FC4,0.0159166580558804,0.0511572414268693,0.0352405833709889,-0.0036630036630036,-0.0015693192651327
A03,6,C5,0.0080447943034284,0.0566375990542594,0.048592804750831,-0.0036630036630036,-0.0015693192651327
A03,7,C3,0.0465784626928028,0.128902753008634,0.0823242903158311,-0.0036630036630036,-0.0015693192651327
A03,8,C1,0.0331618699498238,0.1310877658342442,0.0979258958844203,-0.0036630036630036,-0.0015693192651327
A03,9,Cz,0.0283591301862432,0.1194912186358436,0.0911320884496003,-0.0036630036630036,-0.0015693192651327
A03,10,C2,0.0395446030409063,0.1494047818693773,0.1098601788284709,-0.0036630036630036,-0.0015693192651327
A03,11,C4,0.0489497676798703,0.1313545902171804,0.0824048225373101,-0.0036630036630036,-0.0015693192651327
A03,12,C6,0.024747376672358,0.0382850872845062,0.0135377106121482,-0.0036630036630036,-0.0015693192651327
A03,13,CP3,0.0628713904940216,0.153244193976866,0.0903728034828443,-0.0036630036630036,-0.0015693192651327
A03,14,CP1,0.0619907026149476,0.1578484312256959,0.0958577286107482,-0.0036630036630036,-0.0015693192651327
A03,15,CPz,0.0635179297036902,0.1586281562441653,0.0951102265404751,-0.0036630036630036,-0.0015693192651327
A03,16,CP2,0.0803463888659608,0.1939534234074195,0.1136070345414586,-0.0036630036630036,-0.0015693192651327
A03,17,CP4,0.08829571984595,0.2031447825227417,0.1148490626767916,-0.0036630036630036,-0.0015693192651327
A03,18,P1,0.0713914583596374,0.1633606292820427,0.0919691709224053,-0.0036630036630036,-0.0015693192651327
A03,19,Pz,0.0793437391127649,0.1677727144352495,0.0884289753224845,-0.0036630036630036,-0.0015693192651327
A03,20,P2,0.0938201633908605,0.18081101805835,0.0869908546674895,-0.0036630036630036,-0.0015693192651327
A03,21,POz,0.0643058985416272,0.1286946988504127,0.0643888003087854,-0.0036630036630036,-0.0015693192651327
A04,0,Fz,0.0269569965256396,0.0177339134054222,-0.0092230831202174,-0.0263157894736841,-0.0274821218015374
A04,1,FC3,0.011071498150982,0.0056010291573305,-0.0054704689936515,-0.0263157894736841,-0.0274821218015374
A04,2,FC1,0.0204494743524048,0.021410995935651,0.0009615215832461,-0.0263157894736841,-0.0274821218015374
A04,3,FCz,0.0173502174041739,0.0188437124133978,0.0014934950092238,-0.0263157894736841,-0.0274821218015374
A04,4,FC2,0.0183608746234854,0.0196073245824092,0.0012464499589238,-0.0263157894736841,-0.0274821218015374
A04,5,FC4,0.0157083082197774,0.0161126238860691,0.0004043156662916,-0.0263157894736841,-0.0274821218015374
A04,6,C5,0.0019914542762184,0.0012038608648784,-0.00078759341134,-0.0263157894736841,-0.0274821218015374
A04,7,C3,0.0177652184358742,0.0227353481134473,0.004970129677573,-0.0263157894736841,-0.0274821218015374
A04,8,C1,0.0359313153309431,0.0475604296838755,0.0116291143529323,-0.0263157894736841,-0.0274821218015374
A04,9,Cz,0.0321139751912137,0.0419037659225749,0.0097897907313611,-0.0263157894736841,-0.0274821218015374
A04,10,C2,0.030634976803072,0.0409636136335111,0.0103286368304391,-0.0263157894736841,-0.0274821218015374
A04,11,C4,0.0253245018278618,0.037648011698741,0.0123235098708791,-0.0263157894736841,-0.0274821218015374
A04,12,C6,0.0149074284220544,0.0185717250868612,0.0036642966648068,-0.0263157894736841,-0.0274821218015374
A04,13,CP3,0.0609431578678461,0.0782952635917725,0.0173521057239264,-0.0263157894736841,-0.0274821218015374
A04,14,CP1,0.0809561522313091,0.096929843683216,0.0159736914519068,-0.0263157894736841,-0.0274821218015374
A04,15,CPz,0.0696118993247313,0.0830515105767395,0.0134396112520081,-0.0263157894736841,-0.0274821218015374
A04,16,CP2,0.0649552407916017,0.0800526852520975,0.0150974444604958,-0.0263157894736841,-0.0274821218015374
A04,17,CP4,0.0550246090044774,0.0710533868822992,0.0160287778778218,-0.0263157894736841,-0.0274821218015374
A04,18,P1,0.1194890298707727,0.1273159625197684,0.0078269326489957,-0.0263157894736841,-0.0274821218015374
A04,19,Pz,0.0960534306767928,0.1017344313412288,0.005681000664436,-0.0263157894736841,-0.0274821218015374
A04,20,P2,0.0896567744399422,0.092494169979905,0.0028373955399627,-0.0263157894736841,-0.0274821218015374
A04,21,POz,0.1231285212409386,0.1218833233896714,-0.0012451978512672,-0.0263157894736841,-0.0274821218015374
A05,0,Fz,0.0112756217797141,0.0049836874527046,-0.0062919343270095,0.0217391304347825,0.0625057563718594
A05,1,FC3,0.0232849739115514,0.0192416358493012,-0.0040433380622501,0.0217391304347825,0.0625057563718594
A05,2,FC1,0.0167447531305292,0.0104896389010375,-0.0062551142294917,0.0217391304347825,0.0625057563718594
A05,3,FCz,0.0175434873475435,0.0130079447492391,-0.0045355425983043,0.0217391304347825,0.0625057563718594
A05,4,FC2,0.0131761454915199,0.0080621153065186,-0.0051140301850012,0.0217391304347825,0.0625057563718594
A05,5,FC4,0.0212451633830831,0.0144196621133096,-0.0068255012697734,0.0217391304347825,0.0625057563718594
A05,6,C5,0.0101745149012215,0.0057299225211405,-0.004444592380081,0.0217391304347825,0.0625057563718594
A05,7,C3,0.0219824761935878,0.015683473136193,-0.0062990030573948,0.0217391304347825,0.0625057563718594
A05,8,C1,0.016187703266791,0.0096174589167574,-0.0065702443500336,0.0217391304347825,0.0625057563718594
A05,9,Cz,0.0184687613122506,0.0146203244293745,-0.003848436882876,0.0217391304347825,0.0625057563718594
A05,10,C2,0.0135150048637707,0.0090451637390639,-0.0044698411247067,0.0217391304347825,0.0625057563718594
A05,11,C4,0.0187953862972855,0.0164774062130817,-0.0023179800842037,0.0217391304347825,0.0625057563718594
A05,12,C6,0.01203208987212,0.0098806883503763,-0.0021514015217436,0.0217391304347825,0.0625057563718594
A05,13,CP3,0.0176052171672707,0.0173714970264437,-0.000233720140827,0.0217391304347825,0.0625057563718594
A05,14,CP1,0.0154205028491732,0.0109929330263128,-0.0044275698228604,0.0217391304347825,0.0625057563718594
A05,15,CPz,0.0172130756023341,0.0152721117671364,-0.0019409638351977,0.0217391304347825,0.0625057563718594
A05,16,CP2,0.0164497068681243,0.0111669725683739,-0.0052827342997504,0.0217391304347825,0.0625057563718594
A05,17,CP4,0.0206622170525787,0.0140922732459976,-0.0065699438065811,0.0217391304347825,0.0625057563718594
A05,18,P1,0.0193098466448732,0.0158187631358818,-0.0034910835089914,0.0217391304347825,0.0625057563718594
A05,19,Pz,0.0160210637075497,0.0118264315200639,-0.0041946321874858,0.0217391304347825,0.0625057563718594
A05,20,P2,0.0161728464314633,0.0133799596711274,-0.0027928867603359,0.0217391304347825,0.0625057563718594
A05,21,POz,0.0139000647675019,0.0143828278839176,0.0004827631164157,0.0217391304347825,0.0625057563718594
A06,0,Fz,0.0261310810430549,0.0251780183386023,-0.0009530627044526,0.0,0.0024605276447511
A06,1,FC3,0.0275673023371876,0.0258643839642184,-0.0017029183729692,0.0,0.0024605276447511
A06,2,FC1,0.0256631784362306,0.0254374160152863,-0.0002257624209443,0.0,0.0024605276447511
A06,3,FCz,0.0245607833678363,0.020349771057352,-0.0042110123104842,0.0,0.0024605276447511
A06,4,FC2,0.0272042891166806,0.0271231316827094,-8.11574339712115e-05,0.0,0.0024605276447511
A06,5,FC4,0.0334333862467869,0.0306469913917868,-0.002786394855,0.0,0.0024605276447511
A06,6,C5,0.0372150667241428,0.0372658458757263,5.077915158351043e-05,0.0,0.0024605276447511
A06,7,C3,0.0236652771260371,0.0239967800500944,0.0003315029240572,0.0,0.0024605276447511
A06,8,C1,0.0337674240469648,0.0301406895217642,-0.0036267345252005,0.0,0.0024605276447511
A06,9,Cz,0.0316752131601229,0.0220780197527562,-0.0095971934073667,0.0,0.0024605276447511
A06,10,C2,0.0352599889987493,0.0354288513005965,0.0001688623018472,0.0,0.0024605276447511
A06,11,C4,0.0455360596632218,0.0493703341883375,0.0038342745251157,0.0,0.0024605276447511
A06,12,C6,0.0610375295798381,0.0565609049046071,-0.004476624675231,0.0,0.0024605276447511
A06,13,CP3,0.0364930140002237,0.035467039008149,-0.0010259749920746,0.0,0.0024605276447511
A06,14,CP1,0.0467474096579626,0.0432372159907123,-0.0035101936672503,0.0,0.0024605276447511
A06,15,CPz,0.0432350877534887,0.0344090992259837,-0.0088259885275049,0.0,0.0024605276447511
A06,16,CP2,0.0513893683664156,0.0476779284619858,-0.0037114399044297,0.0,0.0024605276447511
A06,17,CP4,0.0603784843498516,0.058436013000776,-0.0019424713490756,0.0,0.0024605276447511
A06,18,P1,0.0450204583596051,0.0411595705275562,-0.0038608878320489,0.0,0.0024605276447511
A06,19,Pz,0.0358993551403944,0.0322503154225515,-0.0036490397178429,0.0,0.0024605276447511
A06,20,P2,0.0438481727834659,0.0391062078175954,-0.0047419649658704,0.0,0.0024605276447511
A06,21,POz,0.019624193936522,0.0172961266284337,-0.0023280673080882,0.0,0.0024605276447511
A07,0,Fz,0.0568102804633181,0.0385862089699421,-0.0182240714933759,0.0613718411552346,0.0659035397796197
A07,1,FC3,0.0335908129481023,0.0277024484229463,-0.005888364525156,0.0613718411552346,0.0659035397796197
A07,2,FC1,0.0395717808299354,0.0353630833237989,-0.0042086975061364,0.0613718411552346,0.0659035397796197
A07,3,FCz,0.0385834957301904,0.0315849382839509,-0.0069985574462394,0.0613718411552346,0.0659035397796197
A07,4,FC2,0.0416228421384111,0.0375959191712648,-0.0040269229671463,0.0613718411552346,0.0659035397796197
A07,5,FC4,0.0385641254380764,0.0407225375330886,0.0021584120950121,0.0613718411552346,0.0659035397796197
A07,6,C5,0.0336896845884816,0.0433824271132499,0.0096927425247682,0.0613718411552346,0.0659035397796197
A07,7,C3,0.0604603552076867,0.071280993249957,0.0108206380422703,0.0613718411552346,0.0659035397796197
A07,8,C1,0.0437919304037336,0.0488692085258083,0.0050772781220746,0.0613718411552346,0.0659035397796197
A07,9,Cz,0.0291236570229655,0.0313770084114799,0.0022533513885144,0.0613718411552346,0.0659035397796197
A07,10,C2,0.0397381932286199,0.0439355506615224,0.0041973574329024,0.0613718411552346,0.0659035397796197
A07,11,C4,0.0472242263118187,0.0603535431160244,0.0131293168042057,0.0613718411552346,0.0659035397796197
A07,12,C6,0.0187685074618688,0.0206650163250744,0.0018965088632055,0.0613718411552346,0.0659035397796197
A07,13,CP3,0.0627942331722996,0.072890141915503,0.0100959087432034,0.0613718411552346,0.0659035397796197
A07,14,CP1,0.0630992775786124,0.0723592023370986,0.0092599247584862,0.0613718411552346,0.0659035397796197
A07,15,CPz,0.0624590735571185,0.0723501065792304,0.0098910330221119,0.0613718411552346,0.0659035397796197
A07,16,CP2,0.0495021412243519,0.0585872371841863,0.0090850959598344,0.0613718411552346,0.0659035397796197
A07,17,CP4,0.0362844263489861,0.0445656171050817,0.0082811907560955,0.0613718411552346,0.0659035397796197
A07,18,P1,0.0623805426799762,0.0662584557055133,0.003877913025537,0.0613718411552346,0.0659035397796197
A07,19,Pz,0.059703229152231,0.0650601384350407,0.0053569092828096,0.0613718411552346,0.0659035397796197
A07,20,P2,0.0407919376740635,0.0445755181680203,0.0037835804939568,0.0613718411552346,0.0659035397796197
A07,21,POz,0.0201289536392515,0.0205775667869051,0.0004486131476536,0.0613718411552346,0.0659035397796197
A08,0,Fz,0.0167693129463608,0.0107523236576765,-0.0060169892886843,0.0,-0.0021923887083538
A08,1,FC3,0.0184015417560805,0.020080692623006,0.0016791508669255,0.0,-0.0021923887083538
A08,2,FC1,0.0188968809664699,0.0180198672557974,-0.0008770137106725,0.0,-0.0021923887083538
A08,3,FCz,0.0194503946129879,0.0164200039406137,-0.0030303906723742,0.0,-0.0021923887083538
A08,4,FC2,0.0188650172780908,0.0191395898876735,0.0002745726095827,0.0,-0.0021923887083538
A08,5,FC4,0.0175086403472439,0.0212812370775583,0.0037725967303144,0.0,-0.0021923887083538
A08,6,C5,0.0095604762910232,0.0208961537819314,0.0113356774909082,0.0,-0.0021923887083538
A08,7,C3,0.017690459100007,0.0361036611624751,0.0184132020624681,0.0,-0.0021923887083538
A08,8,C1,0.025597227435024,0.0443635361355965,0.0187663087005725,0.0,-0.0021923887083538
A08,9,Cz,0.0382883661116972,0.0584113093066066,0.0201229431949093,0.0,-0.0021923887083538
A08,10,C2,0.0447828709408226,0.0842312549780095,0.0394483840371869,0.0,-0.0021923887083538
A08,11,C4,0.0549880259380672,0.1323397544727339,0.0773517285346667,0.0,-0.0021923887083538
A08,12,C6,0.0348398803506653,0.1150691086153702,0.0802292282647048,0.0,-0.0021923887083538
A08,13,CP3,0.0475500525229501,0.0873975813162139,0.0398475287932638,0.0,-0.0021923887083538
A08,14,CP1,0.0600342019928707,0.0886664582676007,0.02863225627473,0.0,-0.0021923887083538
A08,15,CPz,0.0805673539621906,0.1046674633044936,0.0241001093423029,0.0,-0.0021923887083538
A08,16,CP2,0.0916908364955824,0.13240338319637,0.0407125467007876,0.0,-0.0021923887083538
A08,17,CP4,0.1084176508082471,0.1644324565138451,0.056014805705598,0.0,-0.0021923887083538
A08,18,P1,0.0745833707731226,0.0961178797668992,0.0215345089937766,0.0,-0.0021923887083538
A08,19,Pz,0.0900760092288567,0.10985483768566,0.0197788284568033,0.0,-0.0021923887083538
A08,20,P2,0.0929445945648901,0.1211581508989168,0.0282135563340267,0.0,-0.0021923887083538
A08,21,POz,0.0649824632190085,0.0849862640170433,0.0200038007980347,0.0,-0.0021923887083538
A09,0,Fz,0.0437737883867957,0.0262984916092324,-0.0174752967775632,-0.0189393939393939,-0.0152709976238667
A09,1,FC3,0.1028237948164047,0.1061416475931871,0.0033178527767823,-0.0189393939393939,-0.0152709976238667
A09,2,FC1,0.0774075711403604,0.0751474817641605,-0.0022600893761998,-0.0189393939393939,-0.0152709976238667
A09,3,FCz,0.0560081668380585,0.0489420500065323,-0.0070661168315261,-0.0189393939393939,-0.0152709976238667
A09,4,FC2,0.0533740982186859,0.0487320201431259,-0.0046420780755599,-0.0189393939393939,-0.0152709976238667
A09,5,FC4,0.0590159645035265,0.0592931033846968,0.0002771388811703,-0.0189393939393939,-0.0152709976238667
A09,6,C5,0.1647284564801268,0.1658031511468864,0.0010746946667595,-0.0189393939393939,-0.0152709976238667
A09,7,C3,0.2418024440718044,0.2516223952848111,0.0098199512130067,-0.0189393939393939,-0.0152709976238667
A09,8,C1,0.1720744259559614,0.1884615383433213,0.0163871123873599,-0.0189393939393939,-0.0152709976238667
A09,9,Cz,0.1171456038657453,0.1195203116689606,0.0023747078032153,-0.0189393939393939,-0.0152709976238667
A09,10,C2,0.1243419595756493,0.1279321463853195,0.0035901868096702,-0.0189393939393939,-0.0152709976238667
A09,11,C4,0.2326948408167209,0.2575387656933643,0.0248439248766433,-0.0189393939393939,-0.0152709976238667
A09,12,C6,0.1883153969630946,0.2186620229535215,0.0303466259904269,-0.0189393939393939,-0.0152709976238667
A09,13,CP3,0.2718115050827878,0.273266723171288,0.0014552180885001,-0.0189393939393939,-0.0152709976238667
A09,14,CP1,0.2262008306942256,0.2327474434234899,0.0065466127292643,-0.0189393939393939,-0.0152709976238667
A09,15,CPz,0.188261737065204,0.187209150522445,-0.001052586542759,-0.0189393939393939,-0.0152709976238667
A09,16,CP2,0.1751813623435575,0.1697762123921793,-0.0054051499513781,-0.0189393939393939,-0.0152709976238667
A09,17,CP4,0.2364947216499038,0.2436807526355499,0.007186030985646,-0.0189393939393939,-0.0152709976238667
A09,18,P1,0.1874434834913361,0.1925529416239556,0.0051094581326195,-0.0189393939393939,-0.0152709976238667
A09,19,Pz,0.1631774809044679,0.1600541501505417,-0.0031233307539261,-0.0189393939393939,-0.0152709976238667
A09,20,P2,0.1464136143022229,0.1395153337445514,-0.0068982805576714,-0.0189393939393939,-0.0152709976238667
A09,21,POz,0.1100075644933355,0.1130201392240381,0.0030125747307025,-0.0189393939393939,-0.0152709976238667
