Subject,EEG_Channel_Index,EEG_Channel,Raw_EOG_Coupling,Clean_EOG_Coupling,Coupling_Change,Coupling_Change_Percent,Delta_Accuracy,Delta_F1
A01,0,Fz,0.5405659208606023,0.1774780161992793,-0.3630879046613229,-67.16810857837146,-0.0249110320284697,-0.027914278507571
A01,1,FC3,0.4721454907799713,0.138078946140242,-0.3340665446397293,-70.75500055880245,-0.0249110320284697,-0.027914278507571
A01,2,FC1,0.4644257078270324,0.1395665179356118,-0.3248591898914206,-69.94858045463947,-0.0249110320284697,-0.027914278507571
A01,3,FCz,0.4645361836978769,0.1412526819598305,-0.3232835017380464,-69.59274930202254,-0.0249110320284697,-0.027914278507571
A01,4,FC2,0.4708206722694514,0.1429278442216038,-0.3278928280478475,-69.64282737785013,-0.0249110320284697,-0.027914278507571
A01,5,FC4,0.4952785508739221,0.1653805038416711,-0.329898047032251,-66.60858752113205,-0.0249110320284697,-0.027914278507571
A01,6,C5,0.4058910865642782,0.1374436171068321,-0.2684474694574461,-66.13780847708611,-0.0249110320284697,-0.027914278507571
A01,7,C3,0.3984732958267477,0.1266840369083412,-0.2717892589184064,-68.20764697782352,-0.0249110320284697,-0.027914278507571
A01,8,C1,0.4121068061839102,0.1291719385688712,-0.2829348676150389,-68.65571336591177,-0.0249110320284697,-0.027914278507571
A01,9,Cz,0.4114668507726153,0.1259764897176131,-0.2854903610550022,-69.38356286027275,-0.0249110320284697,-0.027914278507571
A01,10,C2,0.4280197093797442,0.1358147302574821,-0.292204979122262,-68.26904759729517,-0.0249110320284697,-0.027914278507571
A01,11,C4,0.432657434634895,0.1513655346426905,-0.2812918999922044,-65.01492346469838,-0.0249110320284697,-0.027914278507571
A01,12,C6,0.468159249309478,0.1875139684850528,-0.2806452808244251,-59.94654195946555,-0.0249110320284697,-0.027914278507571
A01,13,CP3,0.3131261554577207,0.1073144051723477,-0.2058117502853729,-65.7280609422493,-0.0249110320284697,-0.027914278507571
A01,14,CP1,0.3461610630150611,0.1093924209799546,-0.2367686420351065,-68.39840390275349,-0.0249110320284697,-0.027914278507571
A01,15,CPz,0.3604332668048743,0.1204171898418716,-0.2400160769630027,-66.59098897575923,-0.0249110320284697,-0.027914278507571
A01,16,CP2,0.3800537685906819,0.129359398733215,-0.2506943698574669,-65.9628690927322,-0.0249110320284697,-0.027914278507571
A01,17,CP4,0.3729754735153252,0.1347229337191141,-0.238252539796211,-63.87887588174653,-0.0249110320284697,-0.027914278507571
A01,18,P1,0.2897529339044301,0.1110112916367821,-0.1787416422676479,-61.68760393867237,-0.0249110320284697,-0.027914278507571
A01,19,Pz,0.3114748844589012,0.1130548582562837,-0.1984200262026175,-63.70337902117396,-0.0249110320284697,-0.027914278507571
A01,20,P2,0.3223983463943792,0.1247941930297851,-0.1976041533645941,-61.29192521442759,-0.0249110320284697,-0.027914278507571
A01,21,POz,0.2553855541104927,0.1100582053710674,-0.1453273487394253,-56.90507798908209,-0.0249110320284697,-0.027914278507571
A02,0,Fz,0.8665391741291687,0.5655483394690196,-0.3009908346601491,-34.73482141908135,-0.0388692579505299,-0.0270823723691391
A02,1,FC3,0.8555644232866891,0.6155976158504203,-0.2399668074362688,-28.04777768977649,-0.0388692579505299,-0.0270823723691391
A02,2,FC1,0.838149013491665,0.550466499121246,-0.287682514370419,-34.32355222515333,-0.0388692579505299,-0.0270823723691391
A02,3,FCz,0.8282260291679417,0.5093221078857436,-0.3189039212821981,-38.50445531186428,-0.0388692579505299,-0.0270823723691391
A02,4,FC2,0.840214390651482,0.5476824831992138,-0.2925319074522682,-34.8163410085664,-0.0388692579505299,-0.0270823723691391
A02,5,FC4,0.8566359895293715,0.5849257850867521,-0.2717102044426194,-31.718280315527565,-0.0388692579505299,-0.0270823723691391
A02,6,C5,0.8475643115324522,0.7021032285488372,-0.1454610829836149,-17.162247277803814,-0.0388692579505299,-0.0270823723691391
A02,7,C3,0.8419249834359617,0.6413315275422312,-0.2005934558937304,-23.825573517855812,-0.0388692579505299,-0.0270823723691391
A02,8,C1,0.8294226167383411,0.5813758424327137,-0.2480467743056273,-29.90595738527817,-0.0388692579505299,-0.0270823723691391
A02,9,Cz,0.8168381080238097,0.5353717672236044,-0.2814663408002054,-34.45803250795457,-0.0388692579505299,-0.0270823723691391
A02,10,C2,0.8283265804187766,0.5508543568662009,-0.2774722235525757,-33.49792583165619,-0.0388692579505299,-0.0270823723691391
A02,11,C4,0.8384548418679505,0.5765928052263358,-0.2618620366416146,-31.231501515123423,-0.0388692579505299,-0.0270823723691391
A02,12,C6,0.8420270304445198,0.6008011599066078,-0.241225870537912,-28.648233585870152,-0.0388692579505299,-0.0270823723691391
A02,13,CP3,0.8238474090473306,0.6401330726230842,-0.1837143364242464,-22.2995586812232,-0.0388692579505299,-0.0270823723691391
A02,14,CP1,0.8196343056620162,0.5984606838819438,-0.2211736217800723,-26.984427110018423,-0.0388692579505299,-0.0270823723691391
A02,15,CPz,0.817289715901573,0.5799933984831173,-0.2372963174184557,-29.03454097139692,-0.0388692579505299,-0.0270823723691391
A02,16,CP2,0.8233972781224789,0.5865672913370482,-0.2368299867854306,-28.762541858949724,-0.0388692579505299,-0.0270823723691391
A02,17,CP4,0.8271091801771084,0.5883607444449837,-0.2387484357321248,-28.86540754885609,-0.0388692579505299,-0.0270823723691391
A02,18,P1,0.8141211425388034,0.6405159065546395,-0.1736052359841638,-21.32425101291229,-0.0388692579505299,-0.0270823723691391
A02,19,Pz,0.8135209682995304,0.6096720831769257,-0.2038488851226046,-25.05760675704545,-0.0388692579505299,-0.0270823723691391
A02,20,P2,0.8160330066804664,0.609248225533673,-0.2067847811467934,-25.340247202496315,-0.0388692579505299,-0.0270823723691391
A02,21,POz,0.8109976822666588,0.6453662027625285,-0.1656314795041302,-20.423175444990985,-0.0388692579505299,-0.0270823723691391
A03,0,Fz,0.7569847002309643,0.3175161946210073,-0.439468505609957,-58.05513710856645,-0.0036630036630036,-0.0015693192651327
A03,1,FC3,0.6521016871374502,0.2198229703561213,-0.4322787167813289,-66.2900779599138,-0.0036630036630036,-0.0015693192651327
A03,2,FC1,0.6658585644323746,0.2331697590205037,-0.4326888054118708,-64.98208906882886,-0.0036630036630036,-0.0015693192651327
A03,3,FCz,0.6806091329781897,0.250465222715836,-0.4301439102623536,-63.199843995648784,-0.0036630036630036,-0.0015693192651327
A03,4,FC2,0.6850216951227818,0.2506790549104551,-0.4343426402123266,-63.4056765361973,-0.0036630036630036,-0.0015693192651327
A03,5,FC4,0.6963972161110562,0.2562730143422891,-0.4401242017687671,-63.20016674199045,-0.0036630036630036,-0.0015693192651327
A03,6,C5,0.6198227094945657,0.1710311791330085,-0.4487915303615571,-72.40643549951955,-0.0036630036630036,-0.0015693192651327
A03,7,C3,0.5451067000199987,0.1455914821999577,-0.3995152178200409,-73.29119561461704,-0.0036630036630036,-0.0015693192651327
A03,8,C1,0.5840421898961973,0.1678846471007495,-0.4161575427954478,-71.25470556663245,-0.0036630036630036,-0.0015693192651327
A03,9,Cz,0.6090658658491152,0.1888606979718319,-0.4202051678772832,-68.99174480767591,-0.0036630036630036,-0.0015693192651327
A03,10,C2,0.6126383192734853,0.1910556847056101,-0.4215826345678752,-68.81427774022055,-0.0036630036630036,-0.0015693192651327
A03,11,C4,0.6133407763308463,0.191383744667075,-0.4219570316637712,-68.79650725132296,-0.0036630036630036,-0.0015693192651327
A03,12,C6,0.6274021385727412,0.1996487971167113,-0.4277533414560298,-68.1784959211509,-0.0036630036630036,-0.0015693192651327
A03,13,CP3,0.4803707791238213,0.1059939252390765,-0.3743768538847448,-77.93497651285001,-0.0036630036630036,-0.0015693192651327
A03,14,CP1,0.5042010023683203,0.1226146770053123,-0.3815863253630079,-75.68138967805106,-0.0036630036630036,-0.0015693192651327
A03,15,CPz,0.5096132199161322,0.1258050890987947,-0.3838081308173374,-75.31361350486577,-0.0036630036630036,-0.0015693192651327
A03,16,CP2,0.5227914681152006,0.1338296756800938,-0.3889617924351067,-74.4009449575402,-0.0036630036630036,-0.0015693192651327
A03,17,CP4,0.5297252630462549,0.1412405644710085,-0.3884846985752463,-73.33701555806759,-0.0036630036630036,-0.0015693192651327
A03,18,P1,0.4445807841151775,0.0884001763406714,-0.356180607774506,-80.1160600054703,-0.0036630036630036,-0.0015693192651327
A03,19,Pz,0.4506363783483695,0.094868652978108,-0.3557677253702614,-78.94784852350095,-0.0036630036630036,-0.0015693192651327
A03,20,P2,0.4459930738896883,0.0961130361658818,-0.3498800377238064,-78.44965722726573,-0.0036630036630036,-0.0015693192651327
A03,21,POz,0.4022712650476702,0.075924308817188,-0.3263469562304822,-81.12609191506861,-0.0036630036630036,-0.0015693192651327
A04,0,Fz,0.5789815801694653,0.1905688263906183,-0.388412753778847,-67.08551136724597,-0.0263157894736841,-0.0274821218015374
A04,1,FC3,0.4739902794883506,0.148765827728606,-0.3252244517597445,-68.61416063443505,-0.0263157894736841,-0.0274821218015374
A04,2,FC1,0.4612058235343175,0.1385951006891682,-0.3226107228451492,-69.94940358144552,-0.0263157894736841,-0.0274821218015374
A04,3,FCz,0.4744178936067933,0.1512438622070923,-0.3231740313997009,-68.12011851887563,-0.0263157894736841,-0.0274821218015374
A04,4,FC2,0.4838094184063183,0.1557040450766109,-0.3281053733297073,-67.81707028575333,-0.0263157894736841,-0.0274821218015374
A04,5,FC4,0.5094660376298678,0.1664154789284242,-0.3430505587014435,-67.33531449856393,-0.0263157894736841,-0.0274821218015374
A04,6,C5,0.3599777728813372,0.1113388518935738,-0.2486389209877634,-69.0706314997189,-0.0263157894736841,-0.0274821218015374
A04,7,C3,0.3647268922993037,0.1153511155252574,-0.2493757767740463,-68.3732902726028,-0.0263157894736841,-0.0274821218015374
A04,8,C1,0.3678871395452774,0.1080157850996608,-0.2598713544456166,-70.63887983875368,-0.0263157894736841,-0.0274821218015374
A04,9,Cz,0.3675213513770365,0.1047124685560076,-0.2628088828210289,-71.50846660645189,-0.0263157894736841,-0.0274821218015374
A04,10,C2,0.3791628389340091,0.1099331625050058,-0.2692296764290033,-71.0063457658257,-0.0263157894736841,-0.0274821218015374
A04,11,C4,0.3896756841940574,0.1187606621938127,-0.2709150220002446,-69.52320429245201,-0.0263157894736841,-0.0274821218015374
A04,12,C6,0.408951093665049,0.1220211923736093,-0.2869299012914397,-70.16239979210066,-0.0263157894736841,-0.0274821218015374
A04,13,CP3,0.233469613413692,0.0634030646994913,-0.1700665487142006,-72.84311916551407,-0.0263157894736841,-0.0274821218015374
A04,14,CP1,0.2468120783679685,0.0666774750321618,-0.1801346033358066,-72.98451701672664,-0.0263157894736841,-0.0274821218015374
A04,15,CPz,0.2591318193638898,0.0724157976708718,-0.186716021693018,-72.05445558610431,-0.0263157894736841,-0.0274821218015374
A04,16,CP2,0.2654970200954687,0.0719340401931783,-0.1935629799022904,-72.90589545324767,-0.0263157894736841,-0.0274821218015374
A04,17,CP4,0.2735068797967704,0.0769059464569629,-0.1966009333398075,-71.88153127478623,-0.0263157894736841,-0.0274821218015374
A04,18,P1,0.1174303831831767,0.0286636942026808,-0.0887666889804958,-75.59090464861289,-0.0263157894736841,-0.0274821218015374
A04,19,Pz,0.1492718745374912,0.0423402265407869,-0.1069316479967042,-71.63549618977098,-0.0263157894736841,-0.0274821218015374
A04,20,P2,0.1402296421217229,0.0375958324959246,-0.1026338096257983,-73.18981070828771,-0.0263157894736841,-0.0274821218015374
A04,21,POz,0.0597908827393525,0.0173065330566614,-0.042484349682691,-71.05489622538911,-0.0263157894736841,-0.0274821218015374
A05,0,Fz,0.7070606114545827,0.3747332119315749,-0.3323273995230077,-47.001260449134,0.0217391304347825,0.0625057563718594
A05,1,FC3,0.6685675816011681,0.3663640924212281,-0.30220348917994,-45.20163667765432,0.0217391304347825,0.0625057563718594
A05,2,FC1,0.6540548756354032,0.3521022187224026,-0.3019526569130006,-46.166257322011205,0.0217391304347825,0.0625057563718594
A05,3,FCz,0.6460248999201416,0.3207906579711008,-0.3252342419490407,-50.34391739223126,0.0217391304347825,0.0625057563718594
A05,4,FC2,0.663187726989119,0.345325572179693,-0.3178621548094259,-47.92943866023038,0.0217391304347825,0.0625057563718594
A05,5,FC4,0.6924735278095498,0.3744011353203333,-0.3180723924892165,-45.93278727857674,0.0217391304347825,0.0625057563718594
A05,6,C5,0.6451759440819383,0.3990550391793734,-0.2461209049025649,-38.147873794765545,0.0217391304347825,0.0625057563718594
A05,7,C3,0.6369180493483808,0.3812488746561964,-0.2556691746921844,-40.14161240268742,0.0217391304347825,0.0625057563718594
A05,8,C1,0.6291585193535795,0.3612896977095802,-0.2678688216439992,-42.57572827897451,0.0217391304347825,0.0625057563718594
A05,9,Cz,0.6219487069318205,0.3458376700397743,-0.2761110368920462,-44.39450292519286,0.0217391304347825,0.0625057563718594
A05,10,C2,0.6384841794130411,0.3561343695434798,-0.2823498098695613,-44.22189601144474,0.0217391304347825,0.0625057563718594
A05,11,C4,0.6591295802399881,0.3688071971078608,-0.2903223831321272,-44.046328951952255,0.0217391304347825,0.0625057563718594
A05,12,C6,0.6839154895997549,0.402130640271376,-0.2817848493283789,-41.20170600219724,0.0217391304347825,0.0625057563718594
A05,13,CP3,0.607330545391577,0.3803032321751944,-0.2270273132163826,-37.38117816386241,0.0217391304347825,0.0625057563718594
A05,14,CP1,0.6090271927125396,0.3694162461676275,-0.239610946544912,-39.34322628152472,0.0217391304347825,0.0625057563718594
A05,15,CPz,0.6049352003597922,0.3568671662392371,-0.2480680341205551,-41.00737301664935,0.0217391304347825,0.0625057563718594
A05,16,CP2,0.6215353568622747,0.3666679213393684,-0.2548674355229063,-41.006104111206994,0.0217391304347825,0.0625057563718594
A05,17,CP4,0.6275423773140275,0.3621149280627878,-0.2654274492512397,-42.29633867712771,0.0217391304347825,0.0625057563718594
A05,18,P1,0.5871078254011831,0.3809964573533416,-0.2061113680478415,-35.10622054935161,0.0217391304347825,0.0625057563718594
A05,19,Pz,0.5869891204476344,0.3662799674258846,-0.2207091530217498,-37.60021188355898,0.0217391304347825,0.0625057563718594
A05,20,P2,0.5957951510282796,0.37346769331027,-0.2223274577180096,-37.31609049424049,0.0217391304347825,0.0625057563718594
A05,21,POz,0.5617928399152309,0.3751500718258577,-0.1866427680893731,-33.22270325081675,0.0217391304347825,0.0625057563718594
A06,0,Fz,0.5646331603272711,0.2029859922728732,-0.3616471680543978,-64.04993426967359,0.0,0.0024605276447511
A06,1,FC3,0.4870837641254182,0.156000339550456,-0.3310834245749622,-67.97258479133215,0.0,0.0024605276447511
A06,2,FC1,0.486268685301438,0.1622975204155934,-0.3239711648858445,-66.62390046461964,0.0,0.0024605276447511
A06,3,FCz,0.4879502023139605,0.1649221599335133,-0.3230280423804472,-66.20102642617661,0.0,0.0024605276447511
A06,4,FC2,0.5153468162997855,0.1817806812167994,-0.333566135082986,-64.72653454580484,0.0,0.0024605276447511
A06,5,FC4,0.5382642026612062,0.1916171985151161,-0.34664700414609,-64.40090246244303,0.0,0.0024605276447511
A06,6,C5,0.4314461706787475,0.1191506093977161,-0.3122955612810314,-72.38343564151482,0.0,0.0024605276447511
A06,7,C3,0.3963284177365558,0.1098400040961581,-0.2864884136403977,-72.28560981736867,0.0,0.0024605276447511
A06,8,C1,0.4392310193460708,0.1304499742396533,-0.3087810451064175,-70.30037303971203,0.0,0.0024605276447511
A06,9,Cz,0.4518095992682587,0.1416413711410159,-0.3101682281272429,-68.65020766039163,0.0,0.0024605276447511
A06,10,C2,0.4680985460151525,0.152953292484822,-0.3151452535303305,-67.32455296285606,0.0,0.0024605276447511
A06,11,C4,0.4465807925241418,0.1447751653625979,-0.3018056271615439,-67.58141689338967,0.0,0.0024605276447511
A06,12,C6,0.5083491220868604,0.1693783291624066,-0.3389707929244537,-66.68070784364109,0.0,0.0024605276447511
A06,13,CP3,0.3514952458466191,0.0872660802801155,-0.2642291655665036,-75.17289883397298,0.0,0.0024605276447511
A06,14,CP1,0.3845407079886212,0.1065968706273923,-0.2779438373612289,-72.2794314326413,0.0,0.0024605276447511
A06,15,CPz,0.3993980853865266,0.1092486973481384,-0.2901493880383881,-72.64666473240338,0.0,0.0024605276447511
A06,16,CP2,0.4068957692089556,0.1180207098750717,-0.2888750593338839,-70.9948545042591,0.0,0.0024605276447511
A06,17,CP4,0.3916647754747499,0.1154113509156439,-0.276253424559106,-70.5331298236483,0.0,0.0024605276447511
A06,18,P1,0.3126978981566107,0.0649915924186724,-0.2477063057379382,-79.21585248835852,0.0,0.0024605276447511
A06,19,Pz,0.3215980709624007,0.069973512547255,-0.2516245584151456,-78.24193648368122,0.0,0.0024605276447511
A06,20,P2,0.3221613753884684,0.0719827448146667,-0.2501786305738017,-77.65630820024016,0.0,0.0024605276447511
A06,21,POz,0.2527789972358784,0.0391133883314655,-0.2136656089044129,-84.52664629610537,0.0,0.0024605276447511
A07,0,Fz,0.5445398366182204,0.2160415454266177,-0.3284982911916027,-60.32585113179047,0.0613718411552346,0.0659035397796197
A07,1,FC3,0.4222565017219273,0.1334649246375852,-0.288791577084342,-68.39245243274496,0.0613718411552346,0.0659035397796197
A07,2,FC1,0.4192394069678136,0.13585127839522,-0.2833881285725935,-67.59577555512337,0.0613718411552346,0.0659035397796197
A07,3,FCz,0.4368884637022492,0.1456473775107952,-0.291241086191454,-66.66257188927341,0.0613718411552346,0.0659035397796197
A07,4,FC2,0.4515409763075889,0.1542805615275518,-0.297260414780037,-65.832433904635,0.0613718411552346,0.0659035397796197
A07,5,FC4,0.4829732344282694,0.1625517310306439,-0.3204215033976254,-66.34353222015122,0.0613718411552346,0.0659035397796197
A07,6,C5,0.2902851560579136,0.0460490903069815,-0.244236065750932,-84.13660177036594,0.0613718411552346,0.0659035397796197
A07,7,C3,0.2921557315620799,0.0588203360735248,-0.2333353954885551,-79.86678688142518,0.0613718411552346,0.0659035397796197
A07,8,C1,0.3118443216328475,0.0737858032078495,-0.2380585184249979,-76.33889794064555,0.0613718411552346,0.0659035397796197
A07,9,Cz,0.3201130581462413,0.0842010724943206,-0.2359119856519206,-73.69645806330898,0.0613718411552346,0.0659035397796197
A07,10,C2,0.3554492295113551,0.0984247258080881,-0.2570245037032669,-72.30976532333602,0.0613718411552346,0.0659035397796197
A07,11,C4,0.3713293914075576,0.0997637541890096,-0.271565637218548,-73.13335370226254,0.0613718411552346,0.0659035397796197
A07,12,C6,0.4006818861145316,0.1057370151446726,-0.2949448709698589,-73.61073240170168,0.0613718411552346,0.0659035397796197
A07,13,CP3,0.1832486132060109,0.0288759299279214,-0.1543726832780894,-84.24221093806659,0.0613718411552346,0.0659035397796197
A07,14,CP1,0.2187140136667487,0.0342735470607679,-0.1844404666059808,-84.32951483712881,0.0613718411552346,0.0659035397796197
A07,15,CPz,0.2318609905271048,0.0402394737782658,-0.1916215167488389,-82.64500048637468,0.0613718411552346,0.0659035397796197
A07,16,CP2,0.2641549375794408,0.0538678014160963,-0.2102871361633444,-79.6074978155968,0.0613718411552346,0.0659035397796197
A07,17,CP4,0.2846930250877732,0.0628208138553895,-0.2218722112323836,-77.93384160499845,0.0613718411552346,0.0659035397796197
A07,18,P1,0.1347536660077022,0.038565693541985,-0.0961879724657171,-71.38059788311753,0.0613718411552346,0.0659035397796197
A07,19,Pz,0.1773543364724591,0.0396729819986583,-0.1376813544738007,-77.63066706586051,0.0613718411552346,0.0659035397796197
A07,20,P2,0.1936321795476356,0.0473750326156817,-0.1462571469319539,-75.53349204333726,0.0613718411552346,0.0659035397796197
A07,21,POz,0.1054568981698265,0.0394442357375517,-0.0660126624322747,-62.59681782596027,0.0613718411552346,0.0659035397796197
A08,0,Fz,0.7667348020278038,0.2947489347494434,-0.4719858672783603,-61.55790320591773,0.0,-0.0021923887083538
A08,1,FC3,0.729966192471962,0.2810228040122146,-0.4489433884597474,-61.50194256797602,0.0,-0.0021923887083538
A08,2,FC1,0.7152112256293083,0.2409758159305582,-0.4742354096987501,-66.30704227013138,0.0,-0.0021923887083538
A08,3,FCz,0.7129911574772129,0.2349268647146267,-0.4780642927625861,-67.05052198040268,0.0,-0.0021923887083538
A08,4,FC2,0.7240880573628851,0.2458061451235329,-0.4782819122393521,-66.05300382680606,0.0,-0.0021923887083538
A08,5,FC4,0.7467770214279265,0.2758648728594084,-0.470912148568518,-63.05927138305327,0.0,-0.0021923887083538
A08,6,C5,0.6500679181668944,0.2938840120471827,-0.3561839061197117,-54.79179885143436,0.0,-0.0021923887083538
A08,7,C3,0.6479641997290843,0.2355733679934706,-0.4123908317356136,-63.64407661843594,0.0,-0.0021923887083538
A08,8,C1,0.6663627557380387,0.2224089554612136,-0.4439538002768251,-66.62344142945358,0.0,-0.0021923887083538
A08,9,Cz,0.6571323843245067,0.2029723146068787,-0.4541600697176279,-69.1124163945257,0.0,-0.0021923887083538
A08,10,C2,0.667592754141196,0.2061861204327351,-0.4614066337084609,-69.1149852730237,0.0,-0.0021923887083538
A08,11,C4,0.6619777918569114,0.2243054530314404,-0.4376723388254709,-66.11586434006463,0.0,-0.0021923887083538
A08,12,C6,0.6799904725951714,0.2752563743782139,-0.4047340982169575,-59.52055426192916,0.0,-0.0021923887083538
A08,13,CP3,0.5097745594105686,0.2102058916165695,-0.299568667793999,-58.76493094131218,0.0,-0.0021923887083538
A08,14,CP1,0.5765120112374208,0.1993124061450272,-0.3771996050923936,-65.42788315594247,0.0,-0.0021923887083538
A08,15,CPz,0.5782816317219012,0.1928540047123229,-0.3854276270095782,-66.65050485209471,0.0,-0.0021923887083538
A08,16,CP2,0.5819851190247508,0.18575911989642,-0.3962259991283308,-68.08180934115602,0.0,-0.0021923887083538
A08,17,CP4,0.562690937880942,0.1924134393165317,-0.3702774985644103,-65.80477374646402,0.0,-0.0021923887083538
A08,18,P1,0.4899888509679157,0.1915731339200701,-0.2984157170478456,-60.9025524679511,0.0,-0.0021923887083538
A08,19,Pz,0.508901918369677,0.1777332111496089,-0.3311687072200681,-65.07515402594734,0.0,-0.0021923887083538
A08,20,P2,0.5107981061828818,0.1794152889393137,-0.3313828172435681,-64.87549840776478,0.0,-0.0021923887083538
A08,21,POz,0.4507200203741162,0.1681924672826279,-0.2825275530914882,-62.68360408241435,0.0,-0.0021923887083538
A09,0,Fz,0.6051502971090962,0.1034811132798712,-0.501669183829225,-82.89993183937648,-0.0189393939393939,-0.0152709976238667
A09,1,FC3,0.4584173125882135,0.0672327780193502,-0.3911845345688634,-85.33371751608692,-0.0189393939393939,-0.0152709976238667
A09,2,FC1,0.4625804129920969,0.0742721210569627,-0.3883082919351341,-83.94395461395558,-0.0189393939393939,-0.0152709976238667
A09,3,FCz,0.4797993914330224,0.080638186378824,-0.3991612050541984,-83.19335376020777,-0.0189393939393939,-0.0152709976238667
A09,4,FC2,0.511449816150137,0.084482856723794,-0.4269669594263429,-83.48169183836525,-0.0189393939393939,-0.0152709976238667
A09,5,FC4,0.5375641920981279,0.1031933244635184,-0.4343708676346094,-80.80353453961433,-0.0189393939393939,-0.0152709976238667
A09,6,C5,0.2711310743584136,0.0241436415678416,-0.2469874327905719,-91.09521414136184,-0.0189393939393939,-0.0152709976238667
A09,7,C3,0.2423002990583275,0.0257598075058722,-0.2165404915524553,-89.36864394885818,-0.0189393939393939,-0.0152709976238667
A09,8,C1,0.3260436495831304,0.0439426049401049,-0.2821010446430255,-86.52247789635264,-0.0189393939393939,-0.0152709976238667
A09,9,Cz,0.3728362564887559,0.058492734594958,-0.3143435218937979,-84.31141457490682,-0.0189393939393939,-0.0152709976238667
A09,10,C2,0.4108426015318178,0.0597011826643459,-0.3511414188674718,-85.46859978937155,-0.0189393939393939,-0.0152709976238667
A09,11,C4,0.3680785558735462,0.0787550349759088,-0.2893235208976373,-78.60374267416839,-0.0189393939393939,-0.0152709976238667
A09,12,C6,0.4123355908261428,0.1164490939243712,-0.2958864969017716,-71.75866053884474,-0.0189393939393939,-0.0152709976238667
A09,13,CP3,0.0908003648750124,0.0409325028998208,-0.0498678619751915,-54.92033214165514,-0.0189393939393939,-0.0152709976238667
A09,14,CP1,0.1993320830661795,0.0199911003776961,-0.1793409826884834,-89.97095697281256,-0.0189393939393939,-0.0152709976238667
A09,15,CPz,0.2515442775952746,0.0303471820412152,-0.2211970955540593,-87.93565000510854,-0.0189393939393939,-0.0152709976238667
A09,16,CP2,0.3040820542237022,0.0411403417052344,-0.2629417125184678,-86.47064463890757,-0.0189393939393939,-0.0152709976238667
A09,17,CP4,0.3003942109666144,0.0689311382167919,-0.2314630727498224,-77.05310698399148,-0.0189393939393939,-0.0152709976238667
A09,18,P1,0.0966992907010145,0.0298221349056449,-0.0668771557953695,-69.1599238324795,-0.0189393939393939,-0.0152709976238667
A09,19,Pz,0.1597492046770448,0.0127357075328107,-0.1470134971442341,-92.02768642350505,-0.0189393939393939,-0.0152709976238667
A09,20,P2,0.2040376309621586,0.0241945999485372,-0.1798430310136214,-88.14208936143528,-0.0189393939393939,-0.0152709976238667
A09,21,POz,0.0917157814483394,0.0169654959674955,-0.0747502854808439,-81.50209734946039,-0.0189393939393939,-0.0152709976238667
